File: DA/DA-BATTERY_ARCHIVE-180803_NMC_2_Grp5_35C_6.csv
Data_Point,Date_Time,Test_Time(s),Step_Time(s),Step_Index,Cycle_Index,Voltage(V),Current(A),Charge_Capacity(Ah),Discharge_Capacity(Ah),Charge_Energy(Wh),Discharge_Energy(Wh),ACR(Ohm),Internal Resistance(Ohm),dV/dt(V/s),dI/dt(A/s),Aux_Temperature_1,Aux_Temperature_2
1,"08-06-2018 07:41:50,815","10,0012","10,0012",1,1,"3,12872171401978",0,0,0,0,0,,,"1,23977661132813E-05",,"34,1478233337402","34,6529884338379"
405,"08-06-2018 08:47:49,017","3968,2032","3908,0961",2,1,"4,11731290817261","1,50006675720215","1,62833690643311",0,"6,26361227035523",0,,,"0,000147819519042969",,"36,3041343688965","34,6295471191406"
809,"08-06-2018 10:27:42,641","9961,827384","3060,7681",5,1,"3,51995706558228","-1,4999361038208","2,30119800567627","1,275213","9,08020401000977","4,776541",,,"-0,000125885009765625",,"35,2442245483398","34,6480865478516"
1213,"08-06-2018 11:24:27,317","13366,50352","295,5483",2,2,"3,56404733657837","1,50003242492676","0,123142465949059",0,"0,415963649749756",0,,,"0,000676155090332031",,"35,3634226131989","34,6542320251465"
1617,"08-06-2018 12:31:48,582","17407,76922","4336,814",2,2,"4,17498731613159","1,50003433227539","1,80697250366211",0,"6,96937942504883",0,,,"0,000162124633789063",,"36,276985168457","34,6656341552734"
2021,"08-06-2018 14:11:44,546","23403,731968","3450,4451",5,2,"3,46284437179565","-1,49996471405029","2,31680750846863","1,437575","9,11008739471436","5,336248",,,"-0,000113487243652344",,"35,3958168029785","34,6294555664063"
2425,"08-06-2018 15:08:38,143","26817,32996","713,3789",2,3,"3,66540002822876","1,50000762939453","0,29723271727562",0,"1,04752147197723",0,,,"0,000178337097167969",,"35,5580978393555","34,6059989929199"
2829,"08-06-2018 16:37:30,098","32149,282804","1560,0008",3,3,"4,20032072067261","0,664798736572266","2,27610206604004",0,"8,93634986877441",0,,,"-5,24520874023438E-05",,"35,1998977661133","34,6780014038086"
3233,"08-06-2018 17:55:51,077","36850,26484","3860,8149",5,3,"3,41806173324585","-1,50001907348633","2,31799530982971","1,608605","9,1123161315918","5,926146",,,"-9,44137573242188E-05",,"35,4138224111867","34,6899948120117"
3637,"08-06-2018 23:35:31,765","57230,950104","960,004",17,4,"3,55422163009644","-3,00014877319336","4,62683296203613","3,105952","18,1872634887695","10,79381",,,"-0,000257492065429688",,"38,1820713691782","35,188232421875"
4041,"08-07-2018 13:05:57,153","105856,339584","840,0034",17,9,"3,60977411270142","-3,00003528594971","2,34689950942993","0,7000003","9,18847846984863","2,603223",,,"-0,000227928161621094",,"37,5539206001151","34,7719917297363"
4445,"08-08-2018 02:33:55,807","154334,994424","120,0049",17,14,"3,81448984146118","-3,00000762939453","2,37828922271729","0,1000088","9,2927885055542","0,3826419",,,"-0,000126838684082031",,"35,3008869259624","34,7941703796387"
4849,"08-08-2018 16:08:12,715","203191,895356","1560,0042",15,19,"4,20047903060913","0,494256973266602","2,37460899353027","0,00002025079","9,25218772888184","0,00004044013",,,"4,76837158203125E-06",,"35,1809692382813","34,7365341186523"
5253,"08-09-2018 05:38:34,110","251813,307548","4759,0209",14,24,"4,20000314712524","1,50000190734863","1,98285555839539","0,00001516604","7,59592390060425","0,00003028327",,,"0,000111463686903354",,"35,8761825331487","34,8053894042969"
5657,"08-09-2018 19:07:30,393","300349,579452","3000,0009",14,29,"3,94035768508911","1,50009155273438","1,24997353553772","0,0000199163","4,61484670639038","0,00003976794",,,"0,000161170959472656",,"35,9724082994781","34,7282104492188"
6061,"08-10-2018 08:44:18,914","349358,083624","1680,0029",14,34,"3,75251722335815","1,50001335144043","0,699960112571716","0,00001933521","2,5034441947937","0,0000386073",,,"0,000104904174804688",,"35,4063034057617","34,6537017822266"
6465,"08-10-2018 22:15:23,640","398022,842596","2894,1091",17,38,"1,99951601028442","-2,999831199646","2,41248106956482","2,411632","9,39540863037109","8,448956",,,"-0,0151315877294767",,"38,5420107745733","34,6875154576484"
6869,"08-11-2018 11:44:15,214","446554,4092","1080,0031",17,43,"3,64074277877808","-2,99981212615967","2,41220450401306","0,9000067","9,3938045501709","3,399446",,,"-0,000263214111328125",,"36,7751617431641","34,5430679321289"
7273,"08-12-2018 01:07:15,012","494734,188108","1320,0014",15,48,"4,20047807693481","0,564081192016602","2,35420513153076","0,00002216938","9,15017795562744","0,00004425947",,,"-9,5367431640625E-07",,"35,0066642761231","34,4857635498047"
7677,"08-12-2018 14:40:35,314","543534,486228",4560,14,53,"4,16660928726196","1,50003623962402","1,89986765384674","0,00002300059","7,24269390106201","0,00004592204",,,"0,000184059143066406",,"35,6518173225339","34,6929664611816"
8081,"08-13-2018 04:09:19,709","592058,860532","2760,0008",14,58,"3,90051126480103","1,49998664855957","1,14990735054016","0,00001941559","4,22042512893677","0,00003877006",,,"0,000182151794433594",,"35,855281829834","34,8083763122559"
8485,"08-13-2018 17:37:58,254","640577,470168","960,0041",14,63,"3,63921976089478","1,50008201599121","0,399966776371002","0,00002241462","1,39222407341003","0,00004475988",,,"0,000178337097167969",,"35,8505821228027","34,7297821044922"
8889,"08-14-2018 07:14:08,146","689547,32568","2520,0031",17,67,"3,22918653488159","-3,00002479553223","2,40815925598145","2,099869","9,37691307067871","7,521047",,,"-0,000444412231445313",,"37,488941192627","34,6396751403809"
9293,"08-14-2018 20:44:14,890","738154,07952","840,0011",17,72,"3,70402193069458","-3,00011348724365","2,40552926063538","0,6999744","9,36654853820801","2,666557",,,"-0,000274658203125",,"36,570671081543","34,6580924987793"
9697,"08-15-2018 10:06:00,040","786259,28196","1080,0028",15,77,"4,2004828453064","0,710090637207031","2,30744576454163","0,00001991666","8,95463466644287","0,00003976686",,,"1,1444091796875E-05",,"35,2847785949707","34,7379875183106"
10101,"08-15-2018 23:32:06,654","834625,785544","3960,0005",14,82,"4,06860399246216","1,50006866455078","1,64991879463196","0,00002200047","6,21541881561279","0,00004392659",,,"0,000156402587890625",,"36,1799430847168","35,2794914245606"
10505,"08-16-2018 12:57:18,952","882938,147004","2040,001",14,87,"3,79067087173462","1,50002288818359","0,849931359291077","0,00002141844","3,06812381744385","0,00004276733",,,"9,05990600585938E-05",,"35,5627136230469","34,8468246459961"
10909,"08-17-2018 02:24:16,241","931355,436384","240,0027",14,92,"3,43516874313355","1,50007057189941","0,0999844521284103","0,00001758385","0,31968891620636","0,00003511501",,,"0,00107097625732422",,"37,3335746137046","34,7932510375977"
11313,"08-17-2018 15:56:44,610","980103,844268","1680,0038",17,96,"3,45613050460815","-3,00012016296387","2,40027713775635","1,399966","9,34666156768799","5,177748",,,"-0,000327110290527344",,"36,8189697761654","34,7188186645508"
11717,"08-18-2018 05:36:55,021","1029314,186428","2280,001",17,101,"3,30265378952026","-2,999924659729","2,39961194992065","1,899888","9,34490966796875","6,866203",,,"-0,000252723693847656",,"37,4801177978516","34,7537231445313"
12121,"08-18-2018 19:12:45,235","1078264,369044","1080,0048",17,106,"3,64340257644653","-2,99984741210938","2,39816927909851","0,8999286","9,33865928649902","3,401202",,,"-0,000271797180175781",,"36,8651235197211","34,7062759399414"
12525,"08-19-2018 08:52:14,616","1127433,703112","120,0005",17,111,"3,86476182937622","-3,00008296966553","2,39637351036072","0,100001","9,33156490325928","0,388039",,,"-0,000166893005371094",,"34,939557239969","34,6899642944336"
12929,"08-19-2018 22:21:27,471","1175986,663824","960,0007",15,116,"4,20043516159058","0,785858154296875","2,27316308021545","0,00002016817","8,81444072723389","0,00004027107",,,"5,43594360351563E-05",,"35,3981285095215","34,7567672729492"
13333,"08-20-2018 11:55:10,932","1224810,11052","4440,0065",14,121,"4,15193605422974","1,50002288818359","1,84995365142822","0,00001533503","7,04190444946289","0,00003061916",,,"0,00017547607421875",,"35,6662063598633","34,6562347412109"
13737,"08-21-2018 01:36:57,353","1274116,486932","3720,0016",14,126,"4,03976583480835","1,50003433227539","1,54995405673981","0,00002225087","5,81461715698242","0,00004442744",,,"0,000165939331054688",,"35,8694195015088","34,8420066833496"
14141,"08-21-2018 08:40:36,142","1299535,325992","1118,2685",20,129,"3,67039251327515","1,5000057220459","0,465921521186829","0,00003183521","1,6341655254364","0,00006354136",,,"0,000204086303710938",,"35,7242202758789","34,6700248718262"
14545,"08-21-2018 10:20:51,803","1305550,999692","600,0029",22,129,"4,15563535690308",0,"2,39117193222046","0,00003183521","9,31296253204346","0,00006354136",,,"-1,02707893113885E-05",,"34,7001341462633","34,7505743998402"
14949,"08-21-2018 11:27:35,483","1309554,76308","4003,5877",23,129,"3,4907546043396","-1,49992179870605","2,39117193222046","1,667958","9,31296253204346","6,284734",,,"-0,000115394592285156",,"35,0384330749512","34,7934494018555"
15353,"08-21-2018 12:22:48,732","1312867,8565","958,3784",20,130,"3,64353322982788","1,49998474121094","0,399300932884216",0,"1,40020501613617",0,,,"0,000196456909179688",,"35,2439532127958","34,7405330168133"
15757,"08-21-2018 13:50:59,070","1318158,22046","1500,0038",21,130,"4,20045328140259","0,456645965576172","2,36686229705811",0,"9,21866321563721",0,,,"-1,23977661132813E-05",,"35,117862701416","34,766056060791"
16161,"08-21-2018 15:09:52,882","1322892,066224","3833,659",23,130,"3,50891637802124","-1,49988651275635","2,39879965782166","1,597156","9,35281467437744","6,036051",,,"-0,000117301940917969",,"34,9528770446777","34,7756996154785"
16565,"08-21-2018 16:05:02,572","1326201,783608","783,5009",20,131,"3,61788988113403","1,49998092651367","0,326439887285233",0,"1,13539564609528",0,,,"0,000141143798828125",,"35,2449226379395","34,7874717712402"
16969,"08-21-2018 17:18:11,539","1330590,692184","420,0009",21,131,"4,20046281814575","1,13727378845215","2,1303608417511",0,"8,22411441802979",0,,,"-0,0000457763671875",,"35,5835189819336","34,791145324707"
17373,"08-21-2018 18:52:16,116","1336235,304248","3664,4225",23,131,"3,52871561050415","-1,50000667572021","2,40017676353455","1,526693","9,35747051239014","5,787978",,,"-0,000110626220703125",,"34,8795738220215","34,6020851135254"
17740,"08-21-2018 19:38:12,381","1338991,551064","60,0073",27,132,"2,76810693740845",0,0,0,0,0,,,"0,000163078308105469",,"35,42124","34,8607177734375"