File: DA/DA-BATTERY_ARCHIVE-180824_NMC_2_Grp_5_35C_6_6.csv
Data_Point,Date_Time,Test_Time(s),Step_Time(s),Step_Index,Cycle_Index,Voltage(V),Current(A),Charge_Capacity(Ah),Discharge_Capacity(Ah),Charge_Energy(Wh),Discharge_Energy(Wh),ACR(Ohm),Internal Resistance(Ohm),dV/dt(V/s),dI/dt(A/s),Aux_Temperature_1,Aux_Temperature_2
1,"08-24-2018 10:22:01,942","10,0023","10,0023",1,1,"3,14712476730347",0,0,0,0,0,,,"-1,62124633789063E-05",,"34,572078704834","34,6911392211914"
405,"08-24-2018 11:27:39,273","3947,3335","3887,2321",2,1,"4,06513738632202","1,50003051757813","1,61961662769318",0,"6,13713502883911",0,,,"0,000140190124511719",,"35,6897811889648","34,6213226318359"
809,"08-24-2018 13:07:18,794","9926,854364","2744,149",5,1,"3,66843748092651","-1,49985313415527","2,39202785491943","1,143266","9,35776805877686","4,408475",,,"-0,000149726867675781",,"34,9971694946289","34,5786361694336"
1213,"08-24-2018 14:08:09,429","13577,489088","2,77",2,2,"2,88760805130005","1,50003051757813","0,00114872853737324",0,"0,0032984777353704",0,,,"0,011439323425293",,"35,2556637013925","34,6532550325915"
1617,"08-24-2018 15:09:57,223","17285,282588","3710,5635",2,2,"4,03224992752075","1,50007629394531","1,54601812362671",0,"5,80131387710571",0,,,"0,000116348266601563",,"35,9112548828125","34,6511993408203"
2021,"08-24-2018 16:49:48,520","23276,581808","2513,9664",5,2,"3,70361089706421","-1,4998779296875","2,41611480712891","1,047339","9,41662883758545","4,054892",,,"-0,000177383422851563",,"34,995231628418","34,5887069702148"
2425,"08-24-2018 17:44:18,651","26546,712308","5784,0969",5,2,"2,0568528175354","-1,49990081787109","2,41611480712891","2,40970117118513","9,41662883758545","8,72291329976762",,,"-0,0202308879352927",,"36,1806151938171","34,52031"
2829,"08-24-2018 18:52:24,190","30632,24964","3482,2621",2,3,"4,00438356399536","1,50004196166992","1,4509129524231",0,"5,42026710510254",0,,,"0,000156402587890625",,"35,9500350952148","34,8553695678711"
3233,"08-24-2018 20:32:05,911","36613,97258","2283,8405",5,3,"3,73634767532349","-1,49984645843506","2,41256332397461","0,9514512","9,40340900421143","3,698407",,,"-0,000174522399902344",,"35,2573968646574","34,7143287658691"
3637,"08-24-2018 21:30:10,375","40098,43668","5768,3046",5,3,"2,28543996810913","-1,49998760223389","2,41256332397461","2,403173","9,40340900421143","8,707584",,,"-0,0150070190429688",,"36,2638663322251","34,8341711323617"
4041,"08-25-2018 09:57:32,185","84940,240484","3480,0005",14,7,"4,0078330039978","1,50006103515625","1,44994652271271","0,00002083723","5,41072940826416","0,00004159285",,,"9,82284545898438E-05",,"35,9828071594238","34,7991218566895"
4445,"08-25-2018 23:32:01,107","133809,172944","2280,0023",14,12,"3,82569265365601","1,50003433227539","0,949956774711609","0,00001616708","3,45101809501648","0,00003227808",,,"0,000132560729980469",,"35,5839881521802","34,626880645752"
4849,"08-26-2018 13:03:39,671","182507,734956","3240,0037",14,17,"3,97834825515747","1,49999618530273","1,34992039203644","0,00002016349","5,01266813278198","0,00004025776",,,"0,000145912170410156",,"36,1063499450684","34,824821472168"
5253,"08-27-2018 02:36:43,340","231291,40068","2040,0014",14,22,"3,79352331161499","1,49999809265137","0,849947810173035","0,00001558256","3,0703752040863","0,0000311121",,,"0,000101089477539063",,"35,6015128648377","34,871940612793"
5657,"08-27-2018 16:06:32,951","279881,012124","720,0001",14,27,"3,60768461227417","1,50001525878906","0,299971997737885","0,00001966753","1,03118932247162","0,0000392711",,,"0,000128746032714844",,"36,1221694946289","34,7539672851563"
6061,"08-28-2018 05:38:34,808","328602,883796",2400,17,31,"3,26323461532593","-2,9999532699585","2,38476538658142","1,999731","9,28909206390381","7,18288",,,"-0,000314712524414063",,"37,5605315237992","34,9252815246582"
6465,"08-28-2018 19:09:45,742","377273,814216","1200,0004",17,36,"3,60505342483521","-3,00009536743164","2,38245701789856","0,9999071","9,28054332733154","3,757591",,,"-0,000319480895996094",,"36,9416574059815","34,7236442565918"
6869,"08-29-2018 08:40:39,619","425927,691628","600,0022",16,41,"4,15458917617798",0,"2,38145279884338","0,00002033325","9,27646255493164","0,00004059809",,,"-0,000109024576772189",,"34,8997","34,8926963806152"
7273,"08-29-2018 22:05:16,259","474204,300276","840,0009",15,46,"4,20036363601685","0,864406585693359","2,22873187065125","0,00002208508","8,63536739349365","0,00004409515",,,"-0,000030517578125",,"35,4783554077148","34,8354187011719"
7677,"08-30-2018 11:37:05,419","522913,48714","4440,0052",14,51,"4,15672731399536","1,50005531311035","1,8499242067337","0,00001991404","7,04693984985352","0,000039763",,,"0,000142097473144531",,"35,8059883426596","34,7670669555664"
8081,"08-31-2018 01:09:02,149","571630,19474","3360,0024",14,56,"3,99725770950317","1,50001335144043","1,39993417263031","0,00001958158","5,21544027328491","0,00003909978",,,"0,000184059143066406",,"36,1242599487305","34,7005920410156"
8485,"08-31-2018 14:36:35,825","620083,867836","2040,0009",14,61,"3,79605340957642","1,4999828338623","0,849950194358826","0,00002083322","3,07179379463196","0,00004159091",,,"0,000128746032714844",,"35,5639533996582","34,7293281555176"
8889,"09-01-2018 04:07:39,605","668747,658916","960,0019",14,66,"3,64396810531616","1,50004196166992","0,399984866380692","0,0000169179","1,39395356178284","0,00003377899",,,"0,000184059143066406",,"35,7841453552246","34,6744995117188"
9293,"09-01-2018 17:40:24,763","717512,840172","0,0055",18,71,"1,99679708480835","-2,99991607666016",0,"0,000001916521",0,"0,000003827995",,,"-0,000670127206873873",,"38,9102971520488","35,2698842872644"
9697,"09-02-2018 07:11:23,819","766171,862304","1800,0011",17,75,"3,41365194320679","-3,00004100799561","2,37231516838074","1,499874","9,24142742156982","5,511082",,,"-0,000258445739746094",,"36,8423919677734","34,7798652648926"
10101,"09-02-2018 20:37:26,037","814534,11458","480,0016",17,80,"3,79858732223511","-2,99999523162842","2,37084007263184","0,3999839","9,23590755462647","1,536937",,,"-0,000248908996582031",,"36,1046102116612","34,8737983703613"
10505,"09-03-2018 10:01:04,995","862753,044584","1440,0045",15,85,"4,20047235488892","0,484165191650391","2,32969975471497","0,00002225075","9,06348419189453","0,00004442046",,,"9,5367431640625E-07",,"35,1399993896484","34,7771224975586"
10909,"09-03-2018 23:26:23,037","911071,122496","120,0018",15,90,"4,20052576065064","1,34593200683594","1,99910497665405","0,00002199863","7,67551231384277","0,00004392427",,,"-2,76565551757813E-05",,"35,5665127671855","35,0103988647461"
11313,"09-04-2018 12:53:17,125","959485,1606","3600,0025",14,95,"4,02998876571655","1,50007820129395","1,49991703033447","0,00001674976","5,61933994293213","0,00003344152",,,"8,96453857421875E-05",,"35,8585319519043","34,6981544494629"
11717,"09-05-2018 02:21:52,764","1008000,83792","2520,0012",14,100,"3,87151575088501","1,50004196166992","1,04995810985565","0,00002199935","3,83948087692261","0,00004392234",,,"0,000209808349609375",,"35,7539672527442","34,7201690673828"
12121,"09-05-2018 15:56:08,241","1056856,268116","1800,0032",14,105,"3,76977109909058","1,50003242492676","0,749961256980896","0,00001933243","2,69467973709106","0,00003859798",,,"8,392333984375E-05",,"35,3612060546875","34,6866455078125"
12525,"09-06-2018 05:32:04,771","1105812,820444","1200,0017",14,110,"3,68968915939331","1,50005531311035","0,499979764223099","0,00001691671","1,76112055778503","0,00003377688",,,"0,00020599365234375",,"35,6127969835785","34,743709564209"
12929,"09-06-2018 19:05:40,276","1154628,335916","480,0006",14,115,"3,57360792160034","1,50005340576172","0,199981093406677","0,00002391805","0,672543466091156","0,00004775903",,,"0,000184059143066406",,"36,4930152893066","34,8608245849609"
13333,"09-07-2018 08:41:46,622","1203594,609952","2760,0012",17,119,"2,85928392410278","-2,99992084503174","2,36066889762878","2,29964","9,19697952270508","8,116143",,,"-0,00336170196533203",,"38,1589466731938","34,6637496948242"
13737,"09-07-2018 22:16:43,830","1252491,853","2160,0005",17,124,"3,32328081130981","-2,99999332427979","2,35946893692017","1,799755","9,19253444671631","6,517511",,,"-0,000266075134277344",,"37,6159934997559","35,0991935729981"
14141,"09-13-2018 15:53:13,256","1290489,406308","90,2852",20,129,"3,21271467208862","1,49997520446777","0,0376108884811401","0,00001741754","0,112527638673782","0,00003476018",,,"0,00274085998535156",,"36,3225250244141","33,2429046630859"
14545,"09-13-2018 16:59:01,053","1294437,202508","4038,0814",20,129,"4,10639429092407","1,50003433227539","1,68247485160828","0,00001741754","6,38547849655151","0,00003476018",,,"0,000164985656738281",,"34,0771946769274","33,2764701843262"
14949,"09-13-2018 18:38:34,638","1300410,89896","3030,0966",23,129,"3,59556150436401","-1,50017738342285","2,33689546585083","1,262397","9,12361526489258","4,815131",,,"-0,000178337097167969",,"33,3499221801758","33,2724609375"
15353,"09-13-2018 19:34:03,210","1303739,33452","138,5104",20,130,"3,35460996627808","1,50005531311035","0,0577055960893631",0,"0,184199780225754",0,,,"0,00160980224609375",,"33,4340705871582","33,2821235656738"
15757,"09-13-2018 20:41:03,525","1307759,64912","4158,825",20,130,"4,1221194267273","1,50003814697266","1,73280668258667",0,"6,59594392776489",0,,,"0,000120162963867188",,"33,9938773011088","33,2211265563965"
16161,"09-13-2018 22:20:39,685","1313735,906864","3129,0223",23,130,"3,58009004592896","-1,49982166290283","2,34438920021057","1,303589","9,15763378143311","4,963436",,,"-0,000164031982421875",,"33,3478929322085","33,2723388671875"
16565,"09-13-2018 23:15:50,361","1317046,469336","213,5336",20,131,"3,44949197769165","1,50002098083496","0,0889629870653153",0,"0,290507555007935",0,,,"0,00108623504638672",,"33,4138874137605","33,3280754089356"
16969,"09-14-2018 00:23:11,378","1321087,486036","4254,5503",20,131,"4,13852453231812","1,5","1,77268004417419",0,"6,75987577438355",0,,,"0,000215530395507813",,"34,0176932088556","33,4027709960938"
17373,"09-14-2018 02:02:43,594","1327059,765172","3219,3271",23,131,"3,56565523147583","-1,49992752075195","2,34458518028259","1,341192","9,15761756896973","5,097585",,,"-0,000178337097167969",,"33,3311729431152","33,3922882080078"
17771,"09-14-2018 02:53:50,021","1330126,102928","60,0071",27,132,"2,76526021957397",0,0,0,0,0,,,"0,000163078308105469",,"33,55671","33,28653"